	Bang-SennOff		
Frequency (Hz)	Level (dB)

11.139739	-79.39
11.301211	-79.16
11.465025	-78.95
11.631213	-78.79
11.799810	-78.67
11.970850	-78.60
12.144370	-78.58
12.320405	-78.61
12.498992	-78.68
12.680168	-78.81
12.863969	-78.95
13.050435	-79.10
13.239604	-79.27
13.431515	-79.47
13.626208	-79.63
13.823722	-79.79
14.024100	-79.97
14.227382	-80.10
14.433611	-80.25
14.642829	-80.39
14.855080	-80.52
15.070408	-80.65
15.288856	-80.75
15.510471	-80.85
15.735299	-80.92
15.963385	-80.98
16.194778	-81.00
16.429525	-81.00
16.667674	-80.96
16.909275	-80.89
17.154379	-80.79
17.403035	-80.66
17.655296	-80.51
17.911213	-80.32
18.170840	-80.08
18.434230	-79.76
18.701438	-79.35
18.972519	-78.85
19.247530	-78.25
19.526527	-77.61
19.809568	-76.96
20.096712	-76.36
20.388018	-75.83
20.683546	-75.39
20.983358	-75.02
21.287517	-74.68
21.596084	-74.32
21.909123	-73.91
22.226701	-73.43
22.548881	-72.92
22.875732	-72.44
23.207320	-72.07
23.543715	-71.84
23.884986	-71.77
24.231204	-71.86
24.582441	-72.07
24.938768	-72.40
25.300261	-72.76
25.666993	-73.20
26.039042	-73.61
26.416483	-74.00
26.799396	-74.24
27.187858	-74.28
27.581952	-74.01
27.981758	-73.44
28.387360	-72.70
28.798840	-72.02
29.216286	-71.62
29.639782	-71.61
30.069416	-72.00
30.505279	-72.64
30.947459	-73.26
31.396049	-73.59
31.851141	-73.58
32.312830	-73.36
32.781212	-72.96
33.256382	-72.23
33.738440	-71.06
34.227486	-69.57
34.723620	-68.13
35.226947	-66.83
35.737568	-65.71
36.255592	-64.73
36.781124	-63.83
37.314274	-63.09
37.855152	-62.73
38.403871	-62.96
38.960543	-63.90
39.525284	-65.37
40.098211	-66.78
40.679443	-67.52
41.269100	-67.51
41.867304	-67.08
42.474180	-66.61
43.089852	-66.33
43.714448	-66.31
44.348098	-66.54
44.990933	-66.96
45.643086	-67.41
46.304692	-67.69
46.975888	-67.63
47.656813	-67.16
48.347609	-66.48
49.048418	-65.70
49.759385	-64.66
50.480657	-63.41
51.212385	-62.65
51.954719	-62.80
52.707813	-63.20
53.471824	-62.75
54.246909	-62.00
55.033230	-61.75
55.830948	-61.83
56.640229	-61.79
57.461241	-61.21
58.294153	-59.70
59.139139	-57.46
59.996373	-55.69
60.866033	-54.82
61.748299	-54.28
62.643354	-53.83
63.551382	-54.12
64.472573	-54.74
65.407116	-54.33
66.355206	-54.12
67.317038	-54.80
68.292813	-55.09
69.282731	-54.38
70.286999	-53.79
71.305824	-54.74
72.339416	-56.43
73.387991	-55.22
74.451765	-51.98
75.530959	-49.97
76.625796	-49.30
77.736503	-49.32
78.863310	-49.42
80.006450	-50.99
81.166160	-53.65
82.342680	-54.13
83.536255	-52.96
84.747130	-50.84
85.975557	-48.36
87.221791	-48.48
88.486089	-50.71
89.768713	-51.71
91.069929	-51.68
92.390007	-52.17
93.729219	-51.77
95.087844	-49.84
96.466162	-50.41
97.864459	-53.59
99.283025	-56.67
100.722153	-57.18
102.182141	-56.09
103.663293	-54.01
105.165914	-54.18
106.690316	-55.54
108.236814	-57.09
109.805729	-59.11
111.397386	-61.86
113.012114	-62.65
114.650248	-62.26
116.312128	-59.52
117.998096	-52.41
119.708503	-47.98
121.443703	-48.36
123.204054	-49.45
124.989923	-47.35
126.801678	-47.14
128.639694	-48.46
130.504354	-46.64
132.396041	-44.39
134.315150	-44.88
136.262076	-44.90
138.237223	-45.52
140.241000	-45.07
142.273823	-44.02
144.336111	-42.72
146.428293	-43.55
148.550802	-44.40
150.704076	-43.49
152.888563	-45.07
155.104715	-44.38
157.352990	-45.25
159.633854	-47.27
161.947780	-50.87
164.295247	-52.02
166.676741	-49.77
169.092755	-49.43
171.543790	-49.78
174.030353	-48.32
176.552959	-46.98
179.112131	-50.25
181.708398	-52.90
184.342299	-54.14
187.014379	-53.23
189.725192	-53.64
192.475298	-57.84
195.265267	-58.82
198.095678	-51.69
200.967116	-45.50
203.880176	-47.24
206.835462	-48.63
209.833585	-48.06
212.875166	-46.08
215.960836	-45.63
219.091233	-42.49
222.267006	-45.84
225.488813	-44.46
228.757320	-44.42
232.073205	-47.04
235.437154	-48.16
238.849865	-51.58
242.312043	-50.98
245.824407	-55.43
249.387683	-59.60
253.002609	-67.70
256.669935	-65.78
260.390419	-64.04
264.164832	-60.45
267.993956	-55.70
271.878584	-53.33
275.819521	-51.51
279.817582	-53.21
283.873596	-49.55
287.988403	-47.70
292.162855	-46.29
296.397817	-43.55
300.694165	-43.90
305.052789	-46.06
309.474593	-44.78
313.960491	-42.94
318.511414	-44.60
323.128303	-42.07
327.812115	-41.74
332.563820	-42.98
337.384402	-48.32
342.274859	-47.34
347.236204	-48.38
352.269465	-45.47
357.375684	-47.46
362.555919	-40.10
367.811243	-42.04
373.142743	-43.78
378.551525	-48.47
384.038708	-42.14
389.605429	-44.84
395.252841	-45.24
400.982113	-42.47
406.794432	-43.82
412.691002	-43.43
418.673044	-42.30
424.741797	-42.44
430.898518	-38.67
437.144481	-39.91
443.480981	-38.62
449.909331	-41.92
456.430860	-40.56
463.046920	-44.36
469.758882	-41.65
476.568134	-42.98
483.476089	-46.35
490.484175	-49.08
497.593845	-49.97
504.806572	-53.64
512.123848	-57.24
519.547190	-65.89
527.078134	-54.78
534.718242	-54.81
542.469094	-51.49
550.332296	-51.63
558.309477	-50.06
566.402289	-48.30
574.612408	-47.80
582.941535	-50.80
591.391394	-50.73
599.963735	-46.71
608.660334	-48.13
617.482992	-51.50
626.433537	-50.72
635.513821	-52.14
644.725726	-52.01
654.071160	-57.57
663.552057	-55.16
673.170382	-58.80
682.928127	-55.90
692.827312	-55.49
702.869989	-56.51
713.058235	-53.21
723.394163	-55.67
733.879912	-55.09
744.517654	-61.40
755.309592	-60.61
766.257962	-62.50
777.365030	-60.92
788.633098	-59.86
800.064499	-55.89
811.661600	-55.16
823.426804	-56.76
835.362547	-56.53
847.471301	-58.08
859.755574	-56.29
872.217910	-54.28
884.860890	-55.80
897.687132	-51.67
910.699294	-52.51
923.900070	-51.32
937.292194	-48.99
950.878439	-51.25
964.661620	-55.17
978.644591	-52.20
992.830248	-55.48
1007.221529	-51.15
1021.821414	-48.65
1036.632928	-46.02
1051.659138	-48.99
1066.903156	-49.70
1082.368140	-49.10
1098.057291	-49.90
1113.973860	-48.72
1130.121143	-52.67
1146.502484	-54.34
1163.121276	-56.17
1179.980961	-54.50
1197.085030	-56.94
1214.437027	-57.52
1232.040544	-61.47
1249.899229	-61.74
1268.016778	-63.72
1286.396945	-66.33
1305.043536	-67.97
1323.960414	-72.74
1343.151496	-72.88
1362.620756	-65.85
1382.372227	-66.48
1402.410000	-66.72
1422.738225	-66.03
1443.361112	-65.78
1464.282931	-64.88
1485.508017	-64.96
1507.040765	-65.02
1528.885634	-65.39
1551.047150	-70.71
1573.529901	-70.98
1596.338544	-72.50
1619.477804	-70.90
1642.952471	-72.59
1666.767409	-70.64
1690.927550	-69.20
1715.437896	-69.43
1740.303526	-71.47
1765.529587	-71.61
1791.121306	-73.89
1817.083982	-76.66
1843.422992	-80.81
1870.143792	-77.81
1897.251916	-76.83
1924.752977	-75.61
1952.652672	-78.41
1980.956779	-77.64
2009.671159	-81.35
2038.801761	-85.56
2068.354617	-80.29
2098.335847	-76.73
2128.751662	-76.79
2159.608360	-80.00
2190.912333	-84.87
2222.670063	-88.88
2254.888128	-81.00
2287.573200	-78.62
2320.732050	-76.56
2354.371544	-79.88
2388.498649	-80.68
2423.120434	-85.04
2458.244069	-84.60
2493.876828	-81.83
2530.026092	-77.43
2566.699346	-76.94
2603.904187	-80.28
2641.648320	-82.28
2679.939562	-83.49
2718.785844	-85.21
2758.195211	-87.05
2798.175824	-88.11
2838.735965	-87.35
2879.884033	-88.73
2921.628551	-90.87
2963.978165	-90.02
3006.941645	-91.62
3050.527890	-94.10
3094.745927	-91.28
3139.604913	-90.50
3185.114139	-89.48
3231.283032	-87.13
3278.121151	-87.14
3325.638200	-88.51
3373.844017	-91.73
3422.748588	-93.42
3472.362041	-96.40
3522.694651	-94.51
3573.756843	-96.66
3625.559192	-100.73
3678.112427	-99.60
3731.427432	-103.59
3785.515249	-102.01
3840.387080	-98.17
3896.054290	-96.84
3952.528408	-101.61
4009.821129	-102.25
4067.944321	-94.92
4126.910020	-97.36
4186.730440	-94.11
4247.417969	-93.23
4308.985176	-93.35
4371.444813	-94.04
4434.809815	-100.48
4499.093306	-95.40
4564.308599	-96.72
4630.469202	-97.71
4697.588817	-91.97
4765.681344	-90.81
4834.760887	-90.49
4904.841752	-91.73
4975.938453	-92.77
5048.065717	-89.41
5121.238480	-93.06
5195.471897	-94.71
5270.781343	-94.46
5347.182415	-91.91
5424.690937	-91.51
5503.322961	-90.85
5583.094772	-95.35
5664.022893	-89.33
5746.124083	-91.35
5829.415347	-88.04
5913.913936	-87.80
5999.637349	-90.48
6086.603340	-91.07
6174.829922	-93.10
6264.335367	-85.47
6355.138211	-86.96
6447.257262	-89.93
6540.711597	-90.31
6635.520573	-89.56
6731.703824	-89.01
6829.281272	-90.38
6928.273125	-94.06
7028.699885	-93.79
7130.582353	-94.60
7233.941627	-93.64
7338.799116	-93.04
7445.176537	-101.03
7553.095920	-98.01
7662.579617	-98.37
7773.650302	-103.25
7886.330981	-103.37
8000.644989	-101.66
8116.616003	-107.47
8234.268041	-101.24
8353.625470	-100.21
8474.713009	-102.68
8597.555737	-102.39
8722.179097	-100.95
8848.608897	-103.24
8976.871324	-101.63
9106.992942	-101.07
9239.000700	-100.30
9372.921937	-103.61
9508.784391	-109.72
9646.616199	-110.78
9786.445908	-107.97
9928.302478	-107.11
10072.215288	-106.11
10218.214144	-109.57
10366.329284	-115.78
10516.591384	-118.36
10669.031565	-117.99
10823.681397	-119.07
10980.572911	-119.55
11139.738600	-122.55
11301.211429	-122.13
11465.024840	-120.49
11631.212760	-119.16
11799.809609	-121.07
11970.850305	-121.65
12144.370271	-120.77
12320.405445	-120.28
12498.992285	-121.82
12680.167779	-122.15
12863.969449	-120.14
13050.435363	-119.73
13239.604139	-122.04
13431.514956	-122.14
13626.207560	-122.15
13823.722274	-122.30
14024.100004	-122.02
14227.382252	-121.36
14433.611118	-121.30
14642.829314	-122.40
14855.080172	-122.56
15070.407650	-122.09
15288.856344	-122.82
15510.471498	-120.31
15735.299010	-121.23
15963.385443	-120.20
16194.778036	-122.11
16429.524714	-122.52
16667.674093	-122.31
16909.275497	-121.88
17154.378963	-121.81
17403.035256	-121.68
17655.295873	-122.10
17911.213060	-122.20
18170.839820	-122.24
18434.229924	-122.09
18701.437922	-122.05
18972.519156	-121.95
19247.529769	-121.47
19526.526718	-122.03
19809.567786	-121.66
20096.711592	-121.76
20388.017608	-122.01
20683.546166	-121.68
20983.358471	-121.99
21287.516618	-121.35
21596.083601	-121.25
21909.123326	-121.11
22226.700627	-121.37