	Bang-SonyInEar-On		
Frequency (Hz)	Level (dB)

11.139739	-78.60
11.301211	-78.68
11.465025	-78.76
11.631213	-78.83
11.799810	-78.90
11.970850	-78.94
12.144370	-78.94
12.320405	-78.90
12.498992	-78.79
12.680168	-78.59
12.863969	-78.29
13.050435	-77.91
13.239604	-77.43
13.431515	-76.81
13.626208	-76.23
13.823722	-75.62
14.024100	-74.93
14.227382	-74.35
14.433611	-73.74
14.642829	-73.19
14.855080	-72.68
15.070408	-72.18
15.288856	-71.76
15.510471	-71.35
15.735299	-71.02
15.963385	-70.73
16.194778	-70.51
16.429525	-70.35
16.667674	-70.23
16.909275	-70.18
17.154379	-70.16
17.403035	-70.17
17.655296	-70.21
17.911213	-70.26
18.170840	-70.33
18.434230	-70.39
18.701438	-70.42
18.972519	-70.42
19.247530	-70.37
19.526527	-70.27
19.809568	-70.15
20.096712	-70.04
20.388018	-69.97
20.683546	-69.98
20.983358	-70.08
21.287517	-70.27
21.596084	-70.53
21.909123	-70.82
22.226701	-71.13
22.548881	-71.44
22.875732	-71.74
23.207320	-72.01
23.543715	-72.26
23.884986	-72.48
24.231204	-72.63
24.582441	-72.68
24.938768	-72.59
25.300261	-72.36
25.666993	-72.00
26.039042	-71.61
26.416483	-71.20
26.799396	-70.83
27.187858	-70.46
27.581952	-70.03
27.981758	-69.54
28.387360	-69.02
28.798840	-68.58
29.216286	-68.37
29.639782	-68.48
30.069416	-68.90
30.505279	-69.49
30.947459	-69.96
31.396049	-70.02
31.851141	-69.56
32.312830	-68.66
32.781212	-67.55
33.256382	-66.38
33.738440	-65.24
34.227486	-64.12
34.723620	-62.99
35.226947	-61.77
35.737568	-60.57
36.255592	-59.56
36.781124	-58.88
37.314274	-58.54
37.855152	-58.53
38.403871	-58.84
38.960543	-59.46
39.525284	-60.22
40.098211	-60.82
40.679443	-61.12
41.269100	-61.23
41.867304	-61.29
42.474180	-61.41
43.089852	-61.66
43.714448	-61.99
44.348098	-62.22
44.990933	-62.31
45.643086	-62.35
46.304692	-62.44
46.975888	-62.59
47.656813	-62.64
48.347609	-62.04
49.048418	-60.59
49.759385	-58.79
50.480657	-57.16
51.212385	-56.23
51.954719	-56.25
52.707813	-56.80
53.471824	-57.13
54.246909	-57.31
55.033230	-57.80
55.830948	-58.08
56.640229	-57.38
57.461241	-56.00
58.294153	-54.64
59.139139	-53.73
59.996373	-53.21
60.866033	-52.89
61.748299	-52.91
62.643354	-53.35
63.551382	-53.67
64.472573	-51.80
65.407116	-48.57
66.355206	-46.49
67.317038	-45.79
68.292813	-46.54
69.282731	-48.47
70.286999	-50.67
71.305824	-51.47
72.339416	-51.65
73.387991	-51.08
74.451765	-48.38
75.530959	-45.77
76.625796	-44.59
77.736503	-45.05
78.863310	-46.80
80.006450	-46.88
81.166160	-45.44
82.342680	-44.77
83.536255	-45.13
84.747130	-46.33
85.975557	-47.37
87.221791	-46.13
88.486089	-43.17
89.768713	-41.37
91.069929	-41.24
92.390007	-41.48
93.729219	-41.31
95.087844	-42.40
96.466162	-44.74
97.864459	-46.33
99.283025	-47.21
100.722153	-49.64
102.182141	-53.94
103.663293	-55.44
105.165914	-54.89
106.690316	-54.61
108.236814	-54.60
109.805729	-53.91
111.397386	-54.12
113.012114	-56.89
114.650248	-59.24
116.312128	-54.54
117.998096	-49.53
119.708503	-45.40
121.443703	-43.80
123.204054	-41.46
124.989923	-37.21
126.801678	-35.93
128.639694	-36.31
130.504354	-35.54
132.396041	-36.23
134.315150	-38.96
136.262076	-41.21
138.237223	-40.65
140.241000	-37.42
142.273823	-37.11
144.336111	-36.58
146.428293	-36.27
148.550802	-34.96
150.704076	-34.93
152.888563	-37.17
155.104715	-41.29
157.352990	-44.02
159.633854	-42.06
161.947780	-43.53
164.295247	-47.15
166.676741	-41.01
169.092755	-39.71
171.543790	-41.17
174.030353	-39.65
176.552959	-43.13
179.112131	-49.07
181.708398	-55.49
184.342299	-58.26
187.014379	-58.02
189.725192	-54.58
192.475298	-55.89
195.265267	-51.33
198.095678	-48.02
200.967116	-49.60
203.880176	-51.69
206.835462	-49.00
209.833585	-46.67
212.875166	-46.94
215.960836	-51.01
219.091233	-42.75
222.267006	-42.51
225.488813	-46.22
228.757320	-45.89
232.073205	-48.06
235.437154	-51.95
238.849865	-45.95
242.312043	-47.50
245.824407	-52.52
249.387683	-59.98
253.002609	-64.37
256.669935	-55.51
260.390419	-51.19
264.164832	-49.94
267.993956	-53.92
271.878584	-52.92
275.819521	-49.26
279.817582	-50.17
283.873596	-49.58
287.988403	-47.25
292.162855	-47.90
296.397817	-48.11
300.694165	-46.08
305.052789	-42.32
309.474593	-43.87
313.960491	-46.33
318.511414	-41.85
323.128303	-43.32
327.812115	-41.96
332.563820	-44.62
337.384402	-49.54
342.274859	-43.12
347.236204	-45.82
352.269465	-46.80
357.375684	-42.07
362.555919	-41.47
367.811243	-42.01
373.142743	-41.28
378.551525	-44.16
384.038708	-41.74
389.605429	-36.46
395.252841	-42.29
400.982113	-43.95
406.794432	-45.64
412.691002	-41.77
418.673044	-38.07
424.741797	-38.21
430.898518	-39.54
437.144481	-35.27
443.480981	-35.94
449.909331	-39.94
456.430860	-39.13
463.046920	-40.27
469.758882	-42.42
476.568134	-42.60
483.476089	-45.70
490.484175	-45.82
497.593845	-46.59
504.806572	-49.72
512.123848	-55.10
519.547190	-60.15
527.078134	-54.61
534.718242	-49.78
542.469094	-48.45
550.332296	-49.24
558.309477	-43.90
566.402289	-42.42
574.612408	-42.67
582.941535	-51.42
591.391394	-53.49
599.963735	-45.73
608.660334	-47.00
617.482992	-47.87
626.433537	-49.17
635.513821	-49.68
644.725726	-52.75
654.071160	-53.42
663.552057	-55.00
673.170382	-57.46
682.928127	-57.54
692.827312	-60.02
702.869989	-55.60
713.058235	-56.43
723.394163	-57.87
733.879912	-55.84
744.517654	-59.67
755.309592	-62.73
766.257962	-63.03
777.365030	-59.38
788.633098	-56.62
800.064499	-52.63
811.661600	-54.21
823.426804	-53.44
835.362547	-58.66
847.471301	-54.61
859.755574	-54.09
872.217910	-52.20
884.860890	-53.06
897.687132	-49.78
910.699294	-51.10
923.900070	-54.55
937.292194	-53.13
950.878439	-50.66
964.661620	-56.21
978.644591	-57.22
992.830248	-57.72
1007.221529	-53.52
1021.821414	-53.05
1036.632928	-47.00
1051.659138	-49.27
1066.903156	-48.13
1082.368140	-47.18
1098.057291	-47.93
1113.973860	-49.79
1130.121143	-50.12
1146.502484	-50.16
1163.121276	-52.44
1179.980961	-54.27
1197.085030	-50.43
1214.437027	-52.31
1232.040544	-53.94
1249.899229	-52.53
1268.016778	-55.19
1286.396945	-56.44
1305.043536	-58.73
1323.960414	-65.20
1343.151496	-65.87
1362.620756	-63.17
1382.372227	-62.91
1402.410000	-59.37
1422.738225	-56.32
1443.361112	-54.06
1464.282931	-54.27
1485.508017	-56.34
1507.040765	-54.83
1528.885634	-53.87
1551.047150	-56.64
1573.529901	-60.09
1596.338544	-60.46
1619.477804	-56.38
1642.952471	-61.67
1666.767409	-56.21
1690.927550	-55.55
1715.437896	-55.66
1740.303526	-58.16
1765.529587	-56.16
1791.121306	-56.97
1817.083982	-56.94
1843.422992	-61.49
1870.143792	-62.07
1897.251916	-62.67
1924.752977	-60.80
1952.652672	-62.90
1980.956779	-60.31
2009.671159	-61.74
2038.801761	-61.69
2068.354617	-57.97
2098.335847	-56.86
2128.751662	-55.50
2159.608360	-56.43
2190.912333	-55.51
2222.670063	-61.92
2254.888128	-63.07
2287.573200	-57.08
2320.732050	-52.30
2354.371544	-53.33
2388.498649	-51.47
2423.120434	-54.19
2458.244069	-56.65
2493.876828	-58.88
2530.026092	-54.49
2566.699346	-53.18
2603.904187	-53.56
2641.648320	-54.64
2679.939562	-55.84
2718.785844	-60.78
2758.195211	-63.19
2798.175824	-62.07
2838.735965	-57.07
2879.884033	-59.25
2921.628551	-58.03
2963.978165	-58.96
3006.941645	-59.22
3050.527890	-57.98
3094.745927	-58.11
3139.604913	-58.74
3185.114139	-56.58
3231.283032	-52.92
3278.121151	-56.12
3325.638200	-56.83
3373.844017	-59.71
3422.748588	-62.47
3472.362041	-57.86
3522.694651	-57.34
3573.756843	-58.51
3625.559192	-61.47
3678.112427	-59.26
3731.427432	-57.73
3785.515249	-56.25
3840.387080	-58.15
3896.054290	-58.77
3952.528408	-61.78
4009.821129	-63.41
4067.944321	-58.94
4126.910020	-59.61
4186.730440	-58.04
4247.417969	-58.42
4308.985176	-59.57
4371.444813	-64.69
4434.809815	-61.56
4499.093306	-60.53
4564.308599	-61.39
4630.469202	-67.76
4697.588817	-70.19
4765.681344	-71.07
4834.760887	-66.08
4904.841752	-63.44
4975.938453	-73.03
5048.065717	-78.37
5121.238480	-88.75
5195.471897	-80.40
5270.781343	-77.82
5347.182415	-73.21
5424.690937	-72.93
5503.322961	-72.51
5583.094772	-76.96
5664.022893	-69.54
5746.124083	-68.12
5829.415347	-64.50
5913.913936	-66.83
5999.637349	-66.75
6086.603340	-65.33
6174.829922	-67.40
6264.335367	-71.01
6355.138211	-68.38
6447.257262	-68.74
6540.711597	-71.69
6635.520573	-77.10
6731.703824	-87.33
6829.281272	-83.32
6928.273125	-77.21
7028.699885	-73.59
7130.582353	-73.34
7233.941627	-74.50
7338.799116	-77.69
7445.176537	-78.19
7553.095920	-73.96
7662.579617	-75.54
7773.650302	-78.54
7886.330981	-75.86
8000.644989	-77.51
8116.616003	-79.86
8234.268041	-80.62
8353.625470	-82.85
8474.713009	-86.81
8597.555737	-86.96
8722.179097	-84.72
8848.608897	-83.28
8976.871324	-86.55
9106.992942	-84.20
9239.000700	-85.43
9372.921937	-84.42
9508.784391	-84.39
9646.616199	-86.99
9786.445908	-89.30
9928.302478	-93.05
10072.215288	-97.56
10218.214144	-100.82
10366.329284	-99.02
10516.591384	-104.56
10669.031565	-99.15
10823.681397	-103.99
10980.572911	-106.24
11139.738600	-106.95
11301.211429	-101.74
11465.024840	-104.37
11631.212760	-107.60
11799.809609	-105.07
11970.850305	-106.18
12144.370271	-105.65
12320.405445	-109.03
12498.992285	-109.35
12680.167779	-112.35
12863.969449	-110.52
13050.435363	-114.45
13239.604139	-113.47
13431.514956	-113.74
13626.207560	-115.16
13823.722274	-114.05
14024.100004	-114.40
14227.382252	-115.93
14433.611118	-117.77
14642.829314	-116.85
14855.080172	-119.85
15070.407650	-118.01
15288.856344	-118.20
15510.471498	-117.63
15735.299010	-117.97
15963.385443	-117.23
16194.778036	-116.54
16429.524714	-117.20
16667.674093	-120.19
16909.275497	-122.26
17154.378963	-119.63
17403.035256	-119.13
17655.295873	-119.89
17911.213060	-119.37
18170.839820	-120.45
18434.229924	-119.18
18701.437922	-117.85
18972.519156	-117.39
19247.529769	-117.89
19526.526718	-120.49
19809.567786	-121.26
20096.711592	-120.25
20388.017608	-120.86
20683.546166	-121.16
20983.358471	-121.44
21287.516618	-120.42
21596.083601	-120.22
21909.123326	-120.45
22226.700627	-120.87