	Heli-Sony		
Frequency (Hz)	Level (dB)

11.139739	-61.55
11.301211	-61.17
11.465025	-60.86
11.631213	-60.62
11.799810	-60.46
11.970850	-60.40
12.144370	-60.43
12.320405	-60.54
12.498992	-60.73
12.680168	-61.04
12.863969	-61.41
13.050435	-61.84
13.239604	-62.34
13.431515	-63.00
13.626208	-63.63
13.823722	-64.35
14.024100	-65.29
14.227382	-66.17
14.433611	-67.29
14.642829	-68.48
14.855080	-69.68
15.070408	-70.94
15.288856	-71.84
15.510471	-72.46
15.735299	-72.61
15.963385	-72.45
16.194778	-72.00
16.429525	-71.38
16.667674	-70.56
16.909275	-69.87
17.154379	-69.30
17.403035	-68.84
17.655296	-68.33
17.911213	-67.55
18.170840	-66.48
18.434230	-65.43
18.701438	-64.75
18.972519	-64.21
19.247530	-63.05
19.526527	-60.61
19.809568	-57.53
20.096712	-54.61
20.388018	-52.01
20.683546	-49.56
20.983358	-46.99
21.287517	-44.24
21.596084	-41.49
21.909123	-38.95
22.226701	-36.76
22.548881	-34.95
22.875732	-33.53
23.207320	-32.56
23.543715	-31.95
23.884986	-31.66
24.231204	-31.68
24.582441	-31.96
24.938768	-32.54
25.300261	-33.39
25.666993	-34.72
26.039042	-36.50
26.416483	-39.11
26.799396	-42.45
27.187858	-46.84
27.581952	-51.82
27.981758	-55.16
28.387360	-56.90
28.798840	-58.70
29.216286	-60.09
29.639782	-60.34
30.069416	-60.49
30.505279	-60.87
30.947459	-61.05
31.396049	-60.95
31.851141	-60.72
32.312830	-60.33
32.781212	-59.73
33.256382	-58.92
33.738440	-57.88
34.227486	-56.67
34.723620	-55.62
35.226947	-54.86
35.737568	-54.31
36.255592	-53.64
36.781124	-52.53
37.314274	-50.41
37.855152	-47.21
38.403871	-43.99
38.960543	-41.60
39.525284	-40.31
40.098211	-40.04
40.679443	-40.61
41.269100	-41.93
41.867304	-44.15
42.474180	-47.74
43.089852	-53.29
43.714448	-59.62
44.348098	-61.58
44.990933	-61.43
45.643086	-60.53
46.304692	-59.34
46.975888	-58.28
47.656813	-57.27
48.347609	-56.07
49.048418	-54.73
49.759385	-53.76
50.480657	-53.47
51.212385	-53.82
51.954719	-54.66
52.707813	-55.13
53.471824	-54.17
54.246909	-52.90
55.033230	-52.28
55.830948	-52.48
56.640229	-50.33
57.461241	-44.71
58.294153	-40.14
59.139139	-36.95
59.996373	-35.53
60.866033	-36.42
61.748299	-39.52
62.643354	-44.10
63.551382	-49.89
64.472573	-54.89
65.407116	-56.78
66.355206	-58.10
67.317038	-58.70
68.292813	-57.03
69.282731	-54.46
70.286999	-52.87
71.305824	-52.90
72.339416	-53.80
73.387991	-54.60
74.451765	-55.03
75.530959	-56.29
76.625796	-58.34
77.736503	-57.38
78.863310	-53.90
80.006450	-51.76
81.166160	-51.82
82.342680	-54.31
83.536255	-57.68
84.747130	-55.87
85.975557	-53.22
87.221791	-53.59
88.486089	-56.45
89.768713	-57.31
91.069929	-55.64
92.390007	-55.51
93.729219	-57.72
95.087844	-58.20
96.466162	-49.38
97.864459	-39.04
99.283025	-33.04
100.722153	-33.02
102.182141	-37.95
103.663293	-50.60
105.165914	-61.37
106.690316	-64.85
108.236814	-65.18
109.805729	-62.92
111.397386	-61.98
113.012114	-60.84
114.650248	-58.90
116.312128	-59.97
117.998096	-60.82
119.708503	-59.52
121.443703	-57.30
123.204054	-59.40
124.989923	-58.85
126.801678	-54.99
128.639694	-54.60
130.504354	-57.45
132.396041	-58.59
134.315150	-56.55
136.262076	-56.73
138.237223	-62.11
140.241000	-62.25
142.273823	-58.23
144.336111	-54.74
146.428293	-56.33
148.550802	-59.65
150.704076	-57.78
152.888563	-55.83
155.104715	-54.15
157.352990	-53.40
159.633854	-56.12
161.947780	-60.07
164.295247	-62.16
166.676741	-61.55
169.092755	-62.71
171.543790	-61.84
174.030353	-60.67
176.552959	-51.73
179.112131	-39.75
181.708398	-41.66
184.342299	-57.07
187.014379	-60.41
189.725192	-61.70
192.475298	-64.37
195.265267	-64.03
198.095678	-60.02
200.967116	-59.69
203.880176	-60.27
206.835462	-59.66
209.833585	-61.99
212.875166	-61.73
215.960836	-61.83
219.091233	-63.01
222.267006	-60.27
225.488813	-60.22
228.757320	-62.96
232.073205	-65.57
235.437154	-60.45
238.849865	-56.18
242.312043	-59.22
245.824407	-62.39
249.387683	-58.61
253.002609	-57.91
256.669935	-57.86
260.390419	-57.87
264.164832	-55.21
267.993956	-57.76
271.878584	-57.28
275.819521	-56.95
279.817582	-58.40
283.873596	-59.23
287.988403	-64.87
292.162855	-67.89
296.397817	-67.30
300.694165	-62.26
305.052789	-63.86
309.474593	-65.80
313.960491	-67.59
318.511414	-64.98
323.128303	-63.71
327.812115	-65.93
332.563820	-63.87
337.384402	-47.11
342.274859	-45.65
347.236204	-66.50
352.269465	-67.14
357.375684	-65.21
362.555919	-65.87
367.811243	-64.86
373.142743	-67.97
378.551525	-67.08
384.038708	-65.89
389.605429	-63.68
395.252841	-65.13
400.982113	-66.47
406.794432	-66.34
412.691002	-67.94
418.673044	-68.01
424.741797	-67.44
430.898518	-66.18
437.144481	-68.30
443.480981	-63.96
449.909331	-64.96
456.430860	-65.02
463.046920	-67.10
469.758882	-66.11
476.568134	-67.90
483.476089	-70.14
490.484175	-71.22
497.593845	-73.29
504.806572	-73.66
512.123848	-71.92
519.547190	-71.99
527.078134	-72.49
534.718242	-67.46
542.469094	-73.23
550.332296	-72.40
558.309477	-68.39
566.402289	-72.33
574.612408	-73.52
582.941535	-74.77
591.391394	-74.12
599.963735	-51.33
608.660334	-73.01
617.482992	-73.36
626.433537	-74.87
635.513821	-75.94
644.725726	-79.65
654.071160	-78.62
663.552057	-77.93
673.170382	-77.51
682.928127	-78.59
692.827312	-79.46
702.869989	-76.22
713.058235	-79.20
723.394163	-78.98
733.879912	-82.32
744.517654	-81.54
755.309592	-82.20
766.257962	-80.93
777.365030	-84.38
788.633098	-85.05
800.064499	-87.26
811.661600	-86.86
823.426804	-81.43
835.362547	-82.65
847.471301	-80.44
859.755574	-82.45
872.217910	-83.93
884.860890	-84.55
897.687132	-86.93
910.699294	-87.04
923.900070	-87.58
937.292194	-90.38
950.878439	-87.31
964.661620	-87.99
978.644591	-90.73
992.830248	-68.15
1007.221529	-67.75
1021.821414	-88.38
1036.632928	-90.83
1051.659138	-93.20
1066.903156	-92.21
1082.368140	-89.61
1098.057291	-91.81
1113.973860	-92.05
1130.121143	-94.63
1146.502484	-95.10
1163.121276	-96.40
1179.980961	-96.08
1197.085030	-95.06
1214.437027	-95.48
1232.040544	-95.70
1249.899229	-97.05
1268.016778	-97.95
1286.396945	-96.49
1305.043536	-97.41
1323.960414	-98.26
1343.151496	-99.96
1362.620756	-98.09
1382.372227	-99.10
1402.410000	-100.09
1422.738225	-98.46
1443.361112	-100.38
1464.282931	-99.08
1485.508017	-100.09
1507.040765	-100.65
1528.885634	-98.99
1551.047150	-97.01
1573.529901	-98.22
1596.338544	-98.02
1619.477804	-98.58
1642.952471	-101.65
1666.767409	-103.02
1690.927550	-102.76
1715.437896	-102.22
1740.303526	-101.45
1765.529587	-103.30
1791.121306	-102.58
1817.083982	-104.32
1843.422992	-100.95
1870.143792	-100.56
1897.251916	-71.00
1924.752977	-103.02
1952.652672	-102.22
1980.956779	-102.71
2009.671159	-104.23
2038.801761	-103.26
2068.354617	-104.91
2098.335847	-102.58
2128.751662	-102.28
2159.608360	-102.67
2190.912333	-104.58
2222.670063	-103.93
2254.888128	-102.80
2287.573200	-103.16
2320.732050	-103.18
2354.371544	-104.62
2388.498649	-103.24
2423.120434	-101.71
2458.244069	-103.03
2493.876828	-103.35
2530.026092	-103.68
2566.699346	-105.28
2603.904187	-105.97
2641.648320	-107.94
2679.939562	-108.08
2718.785844	-108.01
2758.195211	-107.96
2798.175824	-108.61
2838.735965	-109.37
2879.884033	-109.94
2921.628551	-110.01
2963.978165	-112.10
3006.941645	-113.14
3050.527890	-112.12
3094.745927	-112.61
3139.604913	-113.29
3185.114139	-108.75
3231.283032	-109.15
3278.121151	-108.78
3325.638200	-108.82
3373.844017	-110.77
3422.748588	-111.32
3472.362041	-101.55
3522.694651	-83.61
3573.756843	-111.03
3625.559192	-112.24
3678.112427	-112.57
3731.427432	-112.68
3785.515249	-114.44
3840.387080	-116.77
3896.054290	-117.45
3952.528408	-117.24
4009.821129	-117.62
4067.944321	-116.32
4126.910020	-114.57
4186.730440	-114.30
4247.417969	-115.03
4308.985176	-115.41
4371.444813	-114.08
4434.809815	-115.11
4499.093306	-96.63
4564.308599	-114.03
4630.469202	-114.45
4697.588817	-114.42
4765.681344	-115.54
4834.760887	-116.19
4904.841752	-117.22
4975.938453	-117.19
5048.065717	-118.15
5121.238480	-117.68
5195.471897	-117.58
5270.781343	-118.07
5347.182415	-117.13
5424.690937	-117.84
5503.322961	-118.49
5583.094772	-118.78
5664.022893	-117.92
5746.124083	-117.34
5829.415347	-118.91
5913.913936	-117.48
5999.637349	-117.93
6086.603340	-117.03
6174.829922	-118.21
6264.335367	-119.74
6355.138211	-119.74
6447.257262	-118.62
6540.711597	-118.74
6635.520573	-119.41
6731.703824	-119.30
6829.281272	-118.70
6928.273125	-119.30
7028.699885	-119.13
7130.582353	-119.38
7233.941627	-120.07
7338.799116	-118.80
7445.176537	-119.10
7553.095920	-118.69
7662.579617	-119.12
7773.650302	-119.88
7886.330981	-119.40
8000.644989	-119.57
8116.616003	-121.67
8234.268041	-121.29
8353.625470	-121.16
8474.713009	-122.56
8597.555737	-122.40
8722.179097	-121.32
8848.608897	-121.38
8976.871324	-121.02
9106.992942	-122.02
9239.000700	-122.07
9372.921937	-121.71
9508.784391	-122.55
9646.616199	-121.81
9786.445908	-121.68
9928.302478	-121.78
10072.215288	-121.33
10218.214144	-122.02
10366.329284	-122.23
10516.591384	-121.69
10669.031565	-121.49
10823.681397	-121.99
10980.572911	-122.42
11139.738600	-122.03
11301.211429	-121.70
11465.024840	-121.81
11631.212760	-123.02
11799.809609	-122.66
11970.850305	-123.11
12144.370271	-122.62
12320.405445	-123.43
12498.992285	-123.07
12680.167779	-122.87
12863.969449	-122.54
13050.435363	-123.20
13239.604139	-122.49
13431.514956	-122.72
13626.207560	-122.62
13823.722274	-122.32
14024.100004	-122.54
14227.382252	-122.59
14433.611118	-122.67
14642.829314	-122.42
14855.080172	-122.76
15070.407650	-122.00
15288.856344	-122.88
15510.471498	-122.32
15735.299010	-122.57
15963.385443	-122.25
16194.778036	-122.07
16429.524714	-122.92
16667.674093	-122.80
16909.275497	-122.65
17154.378963	-122.52
17403.035256	-122.65
17655.295873	-122.50
17911.213060	-122.14
18170.839820	-122.41
18434.229924	-121.98
18701.437922	-122.22
18972.519156	-121.58
19247.529769	-121.99
19526.526718	-121.51
19809.567786	-122.03
20096.711592	-122.30
20388.017608	-122.16
20683.546166	-121.97
20983.358471	-121.41
21287.516618	-121.51
21596.083601	-121.97
21909.123326	-121.26
22226.700627	-121.50