	Sony-S		
Frequency (Hz)	Level (dB)

11.139739	-86.51
11.301211	-86.28
11.465025	-86.00
11.631213	-85.64
11.799810	-85.18
11.970850	-84.69
12.144370	-84.18
12.320405	-83.65
12.498992	-83.13
12.680168	-82.58
12.863969	-82.10
13.050435	-81.66
13.239604	-81.26
13.431515	-80.87
13.626208	-80.56
13.823722	-80.30
14.024100	-80.06
14.227382	-79.91
14.433611	-79.82
14.642829	-79.81
14.855080	-79.88
15.070408	-80.06
15.288856	-80.30
15.510471	-80.66
15.735299	-81.05
15.963385	-81.50
16.194778	-81.92
16.429525	-82.28
16.667674	-82.58
16.909275	-82.72
17.154379	-82.76
17.403035	-82.69
17.655296	-82.53
17.911213	-82.32
18.170840	-82.06
18.434230	-81.80
18.701438	-81.57
18.972519	-81.40
19.247530	-81.31
19.526527	-81.31
19.809568	-81.40
20.096712	-81.58
20.388018	-81.82
20.683546	-82.14
20.983358	-82.52
21.287517	-82.96
21.596084	-83.47
21.909123	-84.02
22.226701	-84.60
22.548881	-85.22
22.875732	-85.86
23.207320	-86.51
23.543715	-87.19
23.884986	-87.90
24.231204	-88.46
24.582441	-88.64
24.938768	-88.18
25.300261	-87.12
25.666993	-85.50
26.039042	-83.74
26.416483	-81.83
26.799396	-80.18
27.187858	-78.87
27.581952	-78.01
27.981758	-77.70
28.387360	-77.93
28.798840	-78.67
29.216286	-79.90
29.639782	-81.49
30.069416	-83.43
30.505279	-85.80
30.947459	-88.72
31.396049	-91.99
31.851141	-94.42
32.312830	-95.02
32.781212	-94.91
33.256382	-94.91
33.738440	-95.10
34.227486	-95.52
34.723620	-95.96
35.226947	-95.87
35.737568	-95.02
36.255592	-94.01
36.781124	-93.40
37.314274	-93.30
37.855152	-93.46
38.403871	-93.51
38.960543	-93.37
39.525284	-93.33
40.098211	-93.67
40.679443	-94.42
41.269100	-95.34
41.867304	-96.22
42.474180	-97.08
43.089852	-98.13
43.714448	-99.38
44.348098	-100.52
44.990933	-100.83
45.643086	-99.65
46.304692	-97.90
46.975888	-96.79
47.656813	-96.57
48.347609	-97.14
49.048418	-98.48
49.759385	-100.43
50.480657	-101.94
51.212385	-102.25
51.954719	-102.31
52.707813	-102.78
53.471824	-104.03
54.246909	-105.92
55.033230	-106.65
55.830948	-104.24
56.640229	-100.68
57.461241	-97.50
58.294153	-95.44
59.139139	-95.03
59.996373	-96.14
60.866033	-98.58
61.748299	-102.39
62.643354	-105.60
63.551382	-105.65
64.472573	-105.17
65.407116	-106.27
66.355206	-109.00
67.317038	-111.89
68.292813	-111.90
69.282731	-110.54
70.286999	-109.82
71.305824	-109.42
72.339416	-109.55
73.387991	-110.47
74.451765	-112.12
75.530959	-113.49
76.625796	-114.10
77.736503	-114.86
78.863310	-116.06
80.006450	-117.83
81.166160	-117.46
82.342680	-115.26
83.536255	-114.17
84.747130	-114.29
85.975557	-115.35
87.221791	-116.24
88.486089	-115.95
89.768713	-116.17
91.069929	-117.63
92.390007	-117.72
93.729219	-117.93
95.087844	-117.49
96.466162	-117.01
97.864459	-115.40
99.283025	-112.81
100.722153	-112.87
102.182141	-115.41
103.663293	-118.97
105.165914	-120.23
106.690316	-117.37
108.236814	-115.73
109.805729	-115.21
111.397386	-116.50
113.012114	-116.98
114.650248	-115.33
116.312128	-112.51
117.998096	-111.11
119.708503	-112.45
121.443703	-112.70
123.204054	-114.70
124.989923	-117.29
126.801678	-115.19
128.639694	-114.22
130.504354	-115.72
132.396041	-115.31
134.315150	-115.79
136.262076	-116.05
138.237223	-114.81
140.241000	-114.99
142.273823	-114.14
144.336111	-116.44
146.428293	-119.01
148.550802	-121.47
150.704076	-123.13
152.888563	-122.71
155.104715	-120.57
157.352990	-121.98
159.633854	-121.85
161.947780	-120.74
164.295247	-122.65
166.676741	-119.71
169.092755	-121.40
171.543790	-124.46
174.030353	-123.12
176.552959	-127.87
179.112131	-126.86
181.708398	-125.02
184.342299	-118.78
187.014379	-117.47
189.725192	-119.68
192.475298	-122.29
195.265267	-122.33
198.095678	-123.11
200.967116	-123.96
203.880176	-122.35
206.835462	-121.19
209.833585	-125.35
212.875166	-126.44
215.960836	-122.15
219.091233	-124.17
222.267006	-126.61
225.488813	-125.77
228.757320	-123.13
232.073205	-123.24
235.437154	-125.50
238.849865	-125.71
242.312043	-123.69
245.824407	-123.78
249.387683	-125.64
253.002609	-125.01
256.669935	-126.86
260.390419	-127.27
264.164832	-123.49
267.993956	-123.87
271.878584	-119.70
275.819521	-121.28
279.817582	-122.41
283.873596	-125.13
287.988403	-124.87
292.162855	-123.67
296.397817	-120.51
300.694165	-124.96
305.052789	-125.00
309.474593	-121.32
313.960491	-122.49
318.511414	-125.58
323.128303	-125.74
327.812115	-123.19
332.563820	-122.54
337.384402	-121.06
342.274859	-126.73
347.236204	-125.52
352.269465	-124.31
357.375684	-123.23
362.555919	-124.79
367.811243	-121.03
373.142743	-124.45
378.551525	-123.73
384.038708	-121.34
389.605429	-121.21
395.252841	-123.06
400.982113	-123.34
406.794432	-121.80
412.691002	-124.71
418.673044	-122.41
424.741797	-123.07
430.898518	-122.26
437.144481	-122.66
443.480981	-123.14
449.909331	-123.90
456.430860	-121.26
463.046920	-123.76
469.758882	-121.93
476.568134	-122.45
483.476089	-121.59
490.484175	-120.47
497.593845	-121.46
504.806572	-124.70
512.123848	-124.83
519.547190	-122.23
527.078134	-122.52
534.718242	-124.32
542.469094	-119.71
550.332296	-121.79
558.309477	-124.26
566.402289	-121.75
574.612408	-120.55
582.941535	-121.80
591.391394	-120.83
599.963735	-123.03
608.660334	-121.61
617.482992	-120.78
626.433537	-123.72
635.513821	-121.27
644.725726	-119.83
654.071160	-122.10
663.552057	-122.32
673.170382	-119.57
682.928127	-122.28
692.827312	-120.60
702.869989	-119.29
713.058235	-120.76
723.394163	-120.79
733.879912	-119.88
744.517654	-117.28
755.309592	-119.05
766.257962	-121.17
777.365030	-118.43
788.633098	-121.87
800.064499	-118.89
811.661600	-119.94
823.426804	-118.63
835.362547	-118.77
847.471301	-121.79
859.755574	-119.79
872.217910	-118.74
884.860890	-120.17
897.687132	-118.12
910.699294	-118.54
923.900070	-120.75
937.292194	-116.82
950.878439	-118.05
964.661620	-117.14
978.644591	-119.66
992.830248	-116.56
1007.221529	-114.87
1021.821414	-115.71
1036.632928	-114.79
1051.659138	-116.57
1066.903156	-114.43
1082.368140	-115.33
1098.057291	-113.59
1113.973860	-114.67
1130.121143	-113.22
1146.502484	-114.39
1163.121276	-114.04
1179.980961	-113.43
1197.085030	-114.83
1214.437027	-117.54
1232.040544	-113.81
1249.899229	-114.79
1268.016778	-113.61
1286.396945	-115.02
1305.043536	-115.00
1323.960414	-117.71
1343.151496	-118.42
1362.620756	-117.69
1382.372227	-117.53
1402.410000	-118.78
1422.738225	-119.10
1443.361112	-118.23
1464.282931	-122.35
1485.508017	-119.60
1507.040765	-118.81
1528.885634	-119.56
1551.047150	-122.23
1573.529901	-121.73
1596.338544	-122.19
1619.477804	-124.07
1642.952471	-121.36
1666.767409	-123.70
1690.927550	-123.63
1715.437896	-125.97
1740.303526	-122.64
1765.529587	-124.78
1791.121306	-123.21
1817.083982	-124.24
1843.422992	-125.14
1870.143792	-124.84
1897.251916	-124.23
1924.752977	-124.82
1952.652672	-125.41
1980.956779	-124.24
2009.671159	-126.93
2038.801761	-126.73
2068.354617	-126.45
2098.335847	-127.59
2128.751662	-125.56
2159.608360	-126.16
2190.912333	-127.15
2222.670063	-127.53
2254.888128	-126.19
2287.573200	-126.59
2320.732050	-126.33
2354.371544	-126.94
2388.498649	-127.25
2423.120434	-128.42
2458.244069	-126.98
2493.876828	-127.61
2530.026092	-126.33
2566.699346	-129.07
2603.904187	-127.22
2641.648320	-125.91
2679.939562	-126.67
2718.785844	-125.51
2758.195211	-125.30
2798.175824	-126.23
2838.735965	-125.93
2879.884033	-125.36
2921.628551	-125.52
2963.978165	-124.18
3006.941645	-125.25
3050.527890	-125.83
3094.745927	-124.70
3139.604913	-125.39
3185.114139	-125.24
3231.283032	-126.22
3278.121151	-124.58
3325.638200	-124.27
3373.844017	-125.58
3422.748588	-125.23
3472.362041	-124.58
3522.694651	-123.89
3573.756843	-124.11
3625.559192	-124.18
3678.112427	-122.98
3731.427432	-123.30
3785.515249	-121.96
3840.387080	-120.57
3896.054290	-119.69
3952.528408	-119.27
4009.821129	-118.19
4067.944321	-116.98
4126.910020	-115.84
4186.730440	-114.58
4247.417969	-114.68
4308.985176	-115.88
4371.444813	-115.14
4434.809815	-116.71
4499.093306	-115.97
4564.308599	-115.95
4630.469202	-114.86
4697.588817	-114.60
4765.681344	-115.67
4834.760887	-115.33
4904.841752	-115.33
4975.938453	-116.44
5048.065717	-116.34
5121.238480	-116.12
5195.471897	-116.87
5270.781343	-116.99
5347.182415	-117.47
5424.690937	-116.77
5503.322961	-117.54
5583.094772	-118.69
5664.022893	-119.18
5746.124083	-119.61
5829.415347	-120.25
5913.913936	-119.33
5999.637349	-119.79
6086.603340	-119.52
6174.829922	-119.37
6264.335367	-117.32
6355.138211	-117.60
6447.257262	-117.18
6540.711597	-116.13
6635.520573	-115.21
6731.703824	-115.86
6829.281272	-116.12
6928.273125	-116.04
7028.699885	-116.88
7130.582353	-117.62
7233.941627	-118.28
7338.799116	-117.45
7445.176537	-118.32
7553.095920	-118.58
7662.579617	-118.24
7773.650302	-119.49
7886.330981	-119.54
8000.644989	-119.89
8116.616003	-120.15
8234.268041	-120.51
8353.625470	-121.06
8474.713009	-122.79
8597.555737	-122.11
8722.179097	-121.30
8848.608897	-121.74
8976.871324	-121.30
9106.992942	-119.99
9239.000700	-120.16
9372.921937	-119.41
9508.784391	-119.49
9646.616199	-119.04
9786.445908	-119.10
9928.302478	-119.92
10072.215288	-120.44
10218.214144	-120.48
10366.329284	-121.08
10516.591384	-120.54
10669.031565	-120.34
10823.681397	-121.10
10980.572911	-121.22
11139.738600	-121.21
11301.211429	-121.00
11465.024840	-121.73
11631.212760	-121.72
11799.809609	-122.45
11970.850305	-122.78
12144.370271	-122.27
12320.405445	-122.36
12498.992285	-122.79
12680.167779	-122.81
12863.969449	-122.99
13050.435363	-122.50
13239.604139	-122.61
13431.514956	-122.74
13626.207560	-122.27
13823.722274	-122.27
14024.100004	-122.90
14227.382252	-123.35
14433.611118	-122.60
14642.829314	-122.58
14855.080172	-121.81
15070.407650	-121.83
15288.856344	-122.28
15510.471498	-122.42
15735.299010	-122.24
15963.385443	-122.44
16194.778036	-123.26
16429.524714	-122.84
16667.674093	-122.19
16909.275497	-122.23
17154.378963	-122.64
17403.035256	-122.18
17655.295873	-122.17
17911.213060	-121.88
18170.839820	-122.64
18434.229924	-122.71
18701.437922	-122.30
18972.519156	-121.99
19247.529769	-122.46
19526.526718	-122.24
19809.567786	-122.54
20096.711592	-121.67
20388.017608	-121.64
20683.546166	-121.79
20983.358471	-121.95
21287.516618	-121.43
21596.083601	-121.71
21909.123326	-121.91
22226.700627	-121.79